Data info
File name: R:\Projekte\2018_AiF_Alu-Buckel\Bearbeitung\NIMAK_260819\Daten\NIMAK_0093.d7d
Start time: 28.08.2019 10:13:27,993
Number of channels: 1
Sample rate: 200000
Store type: schnell bei Trigger
Pre time: 500
Post time: 1000


Data1

Time (s)	AI 0_Stromstärke -  (kA)
41.02177	1.5701056
41.021775	2.0727515
41.02178	2.2740364
41.021785	2.7968287
41.02179	2.8899908
41.021795	3.4345388
41.0218	3.7022233
41.021805	3.9390326
41.02181	4.4270158
41.021815	4.5532584
41.02182	5.0852299
41.021825	5.3074956
41.02183	5.6709051
41.021835	5.9136748
41.02184	6.3768625
41.021845	6.4041615
41.02185	7.0095062
41.021855	7.1157813
41.02186	7.5440407
41.021865	7.8772306
41.02187	8.0176592
41.021875	8.4450245
41.02188	8.6221104
41.021885	8.8466406
41.02189	9.4098454
41.021895	9.3562603
41.0219	10.066867
41.021905	10.078609
41.02191	10.485708
41.021915	10.710896
41.02192	11.042237
41.021925	11.267424
41.02193	11.657596
41.021935	11.773766
41.02194	12.213289
41.021945	12.379467
41.02195	12.692034
41.021955	13.000668
41.02196	13.269365
41.021965	13.510942
41.02197	13.841391
41.021975	14.117777
41.02198	14.354944
41.021985	14.727057
41.02199	14.812887
41.021995	15.149652
41.022	15.404224
41.022005	15.592039
41.02201	16.109348
41.022015	16.218006
41.02202	16.584158
41.022025	16.730547
41.02203	17.029942
41.022035	17.258883
41.02204	17.637491
41.022045	17.813026
41.02205	18.089235
41.022055	18.369257
41.02206	18.625854
41.022065	18.930017
41.02207	19.044994
41.022075	19.431114
41.02208	19.58996
41.022085	19.815981
41.02209	20.273745
41.022095	20.259439
41.0221	20.827353
41.022105	20.678638
41.02211	21.339893
41.022115	21.122694
41.02212	21.872223
41.022125	21.784008
41.02213	22.227228
41.022135	22.406519
41.02214	22.544384
41.022145	22.945999
41.02215	23.035585
41.022155	23.381413
41.02216	23.660362
41.022165	23.886263
41.02217	24.114847
41.022175	24.327637
41.02218	24.647354
41.022185	24.800896
41.02219	25.086641
41.022195	25.243938
41.0222	25.609911
41.022205	25.718571
41.02221	26.111662
41.022215	26.126862
41.02222	26.574553
41.022225	26.526272
41.02223	27.100204
41.022235	26.996494
41.02224	27.564287
41.022245	27.5774
41.02225	28.038919
41.022255	27.945757
41.02226	28.544247
41.022265	28.42635
41.02227	28.957308
41.022275	28.970421
41.02228	29.355467
41.022285	29.407204
41.02229	29.866993
41.022295	29.888809
41.0223	30.181049
41.022305	30.333281
41.02231	30.728579
41.022315	30.685902
41.02232	31.280994
41.022325	31.333387
41.02233	31.318724
41.022335	31.949638
41.02234	31.835674
41.022345	32.250046
41.02235	32.488762
41.022355	32.638908
41.02236	32.938839
41.022365	33.079208
41.02237	33.223747
41.022375	33.597351
41.02238	33.692062
41.022385	34.022213
41.02239	34.022034
41.022395	34.573437
41.0224	34.495651
41.022405	34.925877
41.02241	35.014988
41.022415	35.187126
41.02242	35.523235
41.022425	35.614849
41.02243	36.036255
41.022435	36.007404
41.02244	36.483227
41.022445	36.367535
41.02245	36.778214
41.022455	36.916435
41.02246	37.054779
41.022465	37.549736
41.02247	37.584541
41.022475	37.846565
41.02248	37.978947
41.022485	38.24395
41.02249	38.396477
41.022495	38.763584
41.0225	38.730026
41.022505	39.171516
41.02251	39.15292
41.022515	39.670883
41.02252	39.489567
41.022525	40.023029
41.02253	39.966225
41.022535	40.305256
41.02254	40.565907
41.022545	40.523766
41.02255	41.075706
41.022555	41.008652
41.02256	41.369675
41.022565	41.445435
41.02257	41.715858
41.022575	41.91053
41.02258	42.214691
41.022585	42.49823
41.02259	42.251587
41.022595	42.984127
41.0226	42.71698
41.022605	43.209194
41.02261	43.27047
41.022615	43.507755
41.02262	43.840469
41.022625	43.852211
41.02263	44.194458
41.022635	44.271946
41.02264	44.527351
41.022645	44.760227
41.02265	44.912041
41.022655	45.10194
41.02266	45.335651
41.022665	45.574009
41.02267	45.628784
41.022675	45.977654
41.02268	45.997978
41.022685	46.326935
41.02269	46.503483
41.022695	46.788933
41.0227	46.728195
41.022705	47.156273
41.02271	47.170044
41.022715	47.42205
41.02272	47.576786
41.022725	47.903179
41.02273	48.000751
41.022735	48.317909
41.02274	48.259735
41.022745	48.757614
41.02275	48.589706
41.022755	49.11655
41.02276	48.960091
41.022765	49.371601
41.02277	49.491405
41.022775	49.801888
41.02278	49.882591
41.022785	50.117374
41.02279	50.293446
41.022795	50.360321
41.0228	50.753235
41.022805	50.748764
41.02281	51.038506
41.022815	51.172256
41.02282	51.435829
41.022825	51.50938
41.02283	51.682709
41.022835	52.095592
41.02284	51.916122
41.022845	52.450775
41.02285	52.347721
41.022855	52.684723
41.02286	52.83469
41.022865	53.060711
41.02287	53.235947
41.022875	53.210674
41.02288	53.758858
41.022885	53.500534
41.02289	54.2565
41.022895	53.840755
41.0229	54.380058
41.022905	54.399014
41.02291	54.581879
41.022915	54.903507
41.02292	54.903984
41.022925	55.46701
41.02293	55.16386
41.022935	55.657387
41.02294	55.546879
41.022945	55.894913
41.02295	56.087852
41.022955	56.207954
41.02296	56.401073
41.022965	56.562126
41.02297	56.801498
41.022975	56.767761
41.02298	57.261467
41.022985	57.049213
41.02299	57.490467
41.022995	57.576241
41.023	57.92141
41.023005	57.843746
41.02301	58.331192
41.023015	58.025955
41.02302	58.70652
41.023025	58.304249
41.02303	58.942139
41.023035	58.973015
41.02304	59.102535
41.023045	59.428574
41.02305	59.291245
41.023055	59.668777
41.02306	59.789894
41.023065	59.949638
41.02307	60.183167
41.023075	60.235741
41.02308	60.58699
41.023085	60.476124
41.02309	60.916603
41.023095	60.842098
41.0231	61.294674
41.023105	61.032654
41.02311	61.601639
41.023115	61.487854
41.02312	61.937927
41.023125	61.872898
41.02313	62.143684
41.023135	62.190891
41.02314	62.429249
41.023145	62.599361
41.02315	62.737228
41.023155	62.879681
41.02316	63.128056
41.023165	63.045502
41.02317	63.49522
41.023175	63.348831
41.02318	63.8535
41.023185	63.746037
41.02319	64.079224
41.023195	64.107719
41.0232	64.354065
41.023205	64.547897
41.02321	64.53067
41.023215	64.881805
41.02322	64.976631
41.023225	65.091431
41.02323	65.386948
41.023235	65.228287
41.02324	65.728485
41.023245	65.67305
41.02325	65.880898
41.023255	66.114601
41.02326	66.107452
41.023265	66.507164
41.02327	66.461624
41.023275	66.67334
41.02328	66.719948
41.023285	67.061661
41.02329	67.051407
41.023295	67.28035
41.0233	67.388062
41.023305	67.611694
41.02331	67.621765
41.023315	67.883133
41.02332	67.962288
41.023325	68.074226
41.02333	68.454865
41.023335	68.443237
41.02334	68.589149
41.023345	68.852547
41.02335	68.841812
41.023355	69.030342
41.02336	69.145676
41.023365	69.304169
41.02337	69.58139
41.023375	69.603264
41.02338	69.913925
41.023385	69.920059
41.02339	70.085884
41.023395	70.224289
41.0234	70.336166
41.023405	70.488037
41.02341	70.672272
41.023415	70.909264
41.02342	70.882141
41.023425	71.129021
41.02343	71.338829
41.023435	71.129143
41.02344	71.827293
41.023445	71.308968
41.02345	72.112564
41.023455	71.747658
41.02346	72.284698
41.023465	72.098557
41.02347	72.419167
41.023475	72.484673
41.02348	72.624741
41.023485	72.805939
41.02349	72.864471
41.023495	73.208389
41.0235	73.156891
41.023505	73.38649
41.02351	73.421837
41.023515	73.621094
41.02352	73.738457
41.023525	73.993385
41.02353	73.881271
41.023535	74.380455
41.02354	74.110748
41.023545	74.562546
41.02355	74.537102
41.023555	74.816765
41.02356	74.775932
41.023565	75.078964
41.02357	75.026749
41.023575	75.263199
41.02358	75.4869
41.023585	75.377167
41.02359	75.758812
41.023595	75.611115
41.0236	76.049744
41.023605	76.055702
41.02361	76.134857
41.023615	76.457977
41.02362	76.295914
41.023625	76.668381
41.02363	76.593994
41.023635	76.962471
41.02364	76.946136
41.023645	77.184616
41.02365	77.210724
41.023655	77.211441
41.02366	77.593384
41.023665	77.505531
41.02367	77.8116
41.023675	77.776787
41.02368	78.078804
41.023685	78.048943
41.02369	78.222099
41.023695	78.355553
41.0237	78.507187
41.023705	78.620674
41.02371	78.768433
41.023715	78.95166
41.02372	79.027893
41.023725	79.160629
41.02373	79.363167
41.023735	79.149544
41.02374	79.743263
41.023745	79.456802
41.02375	79.986214
41.023755	79.799591
41.02376	80.007912
41.023765	80.174568
41.02377	80.178856
41.023775	80.407974
41.02378	80.398438
41.023785	80.641388
41.02379	80.787239
41.023795	80.845596
41.0238	81.04348
41.023805	81.005928
41.02381	81.276718
41.023815	81.294479
41.02382	81.416428
41.023825	81.58535
41.02383	81.803558
41.023835	81.836281
41.02384	81.870972
41.023845	82.180443
41.02385	82.022247
41.023855	82.389114
41.02386	82.295776
41.023865	82.628967
41.02387	82.584084
41.023875	82.947136
41.02388	82.697571
41.023885	83.227814
41.02389	82.88282
41.023895	83.484886
41.0239	83.178696
41.023905	83.511711
41.02391	83.501099
41.023915	83.795784
41.02392	83.765564
41.023925	83.965721
41.02393	83.965179
41.023935	84.306595
41.02394	84.193466
41.023945	84.390518
41.02395	84.579887
41.023955	84.542213
41.02396	84.85186
41.023965	84.719421
41.02397	84.988472
41.023975	85.065781
41.02398	85.195122
41.023985	85.252937
41.02399	85.492966
41.023995	85.359215
41.024	85.716011
41.024005	85.679115
41.02401	85.842255
41.024015	85.887787
41.02402	86.16555
41.024025	85.99836
41.02403	86.456955
41.024035	86.286484
41.02404	86.595474
41.024045	86.512207
41.02405	86.788956
41.024055	86.80481
41.02406	86.93737
41.024065	87.179306
41.02407	86.989403
41.024075	87.219063
41.02408	87.49884
41.024085	87.338509
41.02409	87.628845
41.024095	87.828812
41.0241	87.605476
41.024105	88.082489
41.02411	87.76516
41.024115	88.054359
41.02412	88.313881
41.024125	88.190498
41.02413	88.502228
41.024135	88.47374
41.02414	88.632706
41.024145	88.822304
41.02415	88.662567
41.024155	89.072884
41.02416	88.86647
41.024165	89.280724
41.02417	89.195724
41.024175	89.234116
41.02418	89.637634
41.024185	89.357796
41.02419	89.626015
41.024195	89.742538
41.0242	89.803993
41.024205	90.049324
41.02421	90.045212
41.024215	90.125381
41.02422	90.199471
41.024225	90.359329
41.02423	90.376854
41.024235	90.471741
41.02424	90.679527
41.024245	90.710579
41.02425	90.869781
41.024255	90.868233
41.02426	90.925217
41.024265	91.239456
41.02427	90.985596
41.024275	91.41761
41.02428	91.241714
41.024285	91.750626
41.02429	91.429352
41.024295	91.803673
41.0243	91.643509
41.024305	91.962875
41.02431	91.88253
41.024315	92.055023
41.02432	92.162491
41.024325	92.395004
41.02433	92.239082
41.024335	92.461586
41.02434	92.566315
41.024345	92.565117
41.02435	92.737793
41.024355	92.768845
41.02436	92.896637
41.024365	92.978836
41.02437	93.237816
41.024375	92.974899
41.02438	93.426529
41.024385	93.158485
41.02439	93.572914
41.024395	93.351303
41.0244	93.782425
41.024405	93.661789
41.02441	93.811928
41.024415	93.96154
41.02442	93.800011
41.024425	94.144646
41.02443	94.155548
41.024435	94.186783
41.02444	94.466034
41.024445	94.38604
41.02445	94.538208
41.024455	94.520508
41.02446	94.681862
41.024465	94.816505
41.02447	94.672684
41.024475	95.166084
41.02448	94.753204
41.024485	95.270332
41.02449	95.211983
41.024495	95.258179
41.0245	95.457794
41.024505	95.430496
41.02451	95.564125
41.024515	95.478477
41.02452	95.982613
41.024525	95.441284
41.02453	96.202553
41.024535	95.698059
41.02454	96.138176
41.024545	96.104622
41.02455	96.166191
41.024555	96.335411
41.02456	96.410812
41.024565	96.297203
41.02457	96.562027
41.024575	96.633972
41.02458	96.775772
41.024585	96.636353
41.02459	97.064796
41.024595	96.822319
41.0246	97.128448
41.024605	96.932411
41.02461	97.373428
41.024615	97.122314
41.02462	97.426476
41.024625	97.424744
41.02463	97.462654
41.024635	97.656967
41.02464	97.572205
41.024645	97.775398
41.02465	97.729149
41.024655	97.957436
41.02466	97.820938
41.024665	98.282936
41.02467	97.8629
41.024675	98.343491
41.02468	98.14048
41.024685	98.333595
41.02469	98.445534
41.024695	98.427475
41.0247	98.794281
41.024705	98.55574
41.02471	98.771576
41.024715	98.91832
41.02472	98.667145
41.024725	99.138199
41.02473	98.758759
41.024735	99.272491
41.02474	99.097786
41.024745	99.356949
41.02475	99.195358
41.024755	99.400101
41.02476	99.531113
41.024765	99.269394
41.02477	99.821983
41.024775	99.518478
41.02478	99.977074
41.024785	99.766907
41.02479	99.884811
41.024795	99.967003
41.0248	100.04449
41.024805	100.01838
41.02481	100.22736
41.024815	100.15947
41.02482	100.36951
41.024825	100.33113
41.02483	100.38263
41.024835	100.6133
41.02484	100.47597
41.024845	100.79229
41.02485	100.53617
41.024855	100.95197
41.02486	100.77232
41.024865	101.03762
41.02487	100.80129
41.024875	101.18568
41.02488	100.91287
41.024885	101.30221
41.02489	101.13573
41.024895	101.41122
41.0249	101.40389
41.024905	101.3087
41.02491	101.70216
41.024915	101.42422
41.02492	101.82977
41.024925	101.59838
41.02493	101.87257
41.024935	101.84598
41.02494	101.8514
41.024945	101.95923
41.02495	102.04965
41.024955	102.13483
41.02496	102.12761
41.024965	102.20254
41.02497	102.15884
41.024975	102.53114
41.02498	102.25374
41.024985	102.46902
41.02499	102.50062
41.024995	102.68533
41.025	102.62972
41.025005	102.85515
41.02501	102.69898
41.025015	102.9225
41.02502	102.79679
41.025025	102.96416
41.02503	102.90837
41.025035	103.26814
41.02504	103.1552
41.025045	103.23215
41.02505	103.34343
41.025055	103.21015
41.02506	103.50359
41.025065	103.32531
41.02507	103.62762
41.025075	103.48093
41.02508	103.71959
41.025085	103.6495
41.02509	103.8996
41.025095	103.70594
41.0251	103.96188
41.025105	103.81686
41.02511	104.04443
41.025115	104.03711
41.02512	104.05022
41.025125	104.22784
41.02513	104.09528
41.025135	104.33501
41.02514	104.27493
41.025145	104.39676
41.02515	104.45082
41.025155	104.58988
41.02516	104.54434
41.025165	104.50119
41.02517	104.77585
41.025175	104.63816
41.02518	104.73234
41.025185	104.82394
41.02519	104.88075
41.025195	104.94065
41.0252	105.09538
41.025205	104.90244
41.02521	105.18819
41.025215	105.02273
41.02522	105.27557
41.025225	105.06367
41.02523	105.53318
41.025235	105.28612
41.02524	105.40986
41.025245	105.46154
41.02525	105.39979
41.025255	105.53932
41.02526	105.66538
41.025265	105.59631
41.02527	105.69817
41.025275	105.80784
41.02528	105.65382
41.025285	105.98034
41.02529	105.74544
41.025295	106.0887
41.0253	105.88211
41.025305	106.1216
41.02531	106.16631
41.025315	106.10777
41.02532	106.23252
41.025325	106.2001
41.02533	106.28742
41.025335	106.2535
41.02534	106.37838
41.025345	106.36848
41.02535	106.62884
41.025355	106.36317
41.02536	106.72164
41.025365	106.42648
41.02537	106.73511
41.025375	106.65667
41.02538	106.69863
41.025385	106.84621
41.02539	106.74739
41.025395	106.98271
41.0254	106.86755
41.025405	106.97466
41.02541	106.99618
41.025415	107.07617
41.02542	107.00041
41.025425	107.07021
41.02543	107.26827
41.025435	107.08881
41.02544	107.32496
41.025445	107.32049
41.02545	107.21487
41.025455	107.53596
41.02546	107.33414
41.025465	107.57845
41.02547	107.44762
41.025475	107.47337
41.02548	107.5508
41.025485	107.59771
41.02549	107.81115
41.025495	107.638
41.0255	107.91338
41.025505	107.69636
41.02551	107.87803
41.025515	107.80418
41.02552	107.87159
41.025525	108.1394
41.02553	107.77039
41.025535	108.29025
41.02554	107.82433
41.025545	108.29282
41.02555	108.07067
41.025555	108.2232
41.02556	108.1217
41.025565	108.34175
41.02557	108.25169
41.025575	108.3445
41.02558	108.43134
41.025585	108.41924
41.02559	108.46854
41.025595	108.43629
41.0256	108.45435
41.025605	108.63262
41.02561	108.60091
41.025615	108.6284
41.02562	108.56098
41.025625	108.72495
41.02563	108.65807
41.025635	108.78587
41.02564	108.88416
41.025645	108.84321
41.02565	108.84166
41.025655	108.96671
41.02566	108.87593
41.025665	109.18748
41.02567	108.82903
41.025675	109.14004
41.02568	108.99639
41.025685	109.17384
41.02569	109.11465
41.025695	109.14719
41.0257	109.24345
41.025705	109.2003
41.02571	109.18409
41.025715	109.36272
41.02572	109.32177
41.025725	109.44939
41.02573	109.36749
41.025735	109.29054
41.02574	109.65103
41.025745	109.32636
41.02575	109.6338
41.025755	109.44581
41.02576	109.74538
41.025765	109.47496
41.02577	109.743
41.025775	109.57462
41.02578	109.65633
41.025785	109.83408
41.02579	109.56847
41.025795	109.87044
41.0258	109.76005
41.025805	110.01086
41.02581	109.66212
41.025815	109.99924
41.02582	109.82848
41.025825	110.01324
41.02583	109.97945
41.025835	110.00097
41.02584	110.10278
41.025845	110.00693
41.02585	109.98577
41.025855	110.15636
41.02586	110.24696
41.025865	109.99823
41.02587	110.36265
41.025875	110.04376
41.02588	110.36211
41.025885	110.18318
41.02589	110.22359
41.025895	110.39251
41.0259	110.13728
41.025905	110.4725
41.02591	110.29733
41.025915	110.48836
41.02592	110.52692
41.025925	110.41671
41.02593	110.35258
41.025935	110.55523
41.02594	110.41075
41.025945	110.57693
41.02595	110.68457
41.025955	110.40324
41.02596	110.81547
41.025965	110.3633
41.02597	110.82465
41.025975	110.51142
41.02598	110.80521
41.025985	110.63427
41.02599	110.7049
41.025995	110.88354
41.026	110.6469
41.026005	110.91268
41.02601	110.7617
41.026015	110.83591
41.02602	110.87621
41.026025	110.83967
41.02603	110.9243
41.026035	110.95345
41.02604	110.81136
41.026045	110.97681
41.02605	110.9258
41.026055	111.09727
41.02606	110.9705
41.026065	111.08893
41.02607	110.93706
41.026075	111.12183
41.02608	110.96269
41.026085	111.10479
41.02609	111.04423
41.026095	111.24403
41.0261	111.10103
41.026105	111.20033
41.02611	111.02151
41.026115	111.32234
41.02612	111.03552
41.026125	111.29076
41.02613	111.05633
41.026135	111.44978
41.02614	111.09454
41.026145	111.47618
41.02615	111.26125
41.026155	111.28139
41.02616	111.42403
41.026165	111.20969
41.02617	111.49925
41.026175	111.21106
41.02618	111.62925
41.026185	111.15765
41.02619	111.72324
41.026195	111.11349
41.0262	111.6004
41.026205	111.38904
41.02621	111.51492
41.026215	111.57686
41.02622	111.33033
41.026225	111.68164
41.02623	111.2923
41.026235	111.64272
41.02624	111.41497
41.026245	111.62484
41.02625	111.51904
41.026255	111.73451
41.02626	111.38696
41.026265	111.68402
41.02627	111.60571
41.026275	111.57328
41.02628	111.65827
41.026285	111.5914
41.02629	111.81605
41.026295	111.45234
41.0263	111.82189
41.026305	111.49091
41.02631	111.75108
41.026315	111.71913
41.02632	111.68522
41.026325	111.70089
41.02633	111.6941
41.026335	111.75942
41.02634	111.64087
41.026345	111.71031
41.02635	111.83995
41.026355	111.75173
41.02636	111.71114
41.026365	111.87732
41.02637	111.73177
41.026375	111.8241
41.02638	111.81778
41.026385	111.74816
41.02639	111.77343
41.026395	111.71097
41.0264	111.87649
41.026405	111.87714
41.02641	111.91261
41.026415	111.74852
41.02642	111.85515
41.026425	111.80222
41.02643	111.86176
41.026435	111.89317
41.02644	111.8263
41.026445	111.92745
41.02645	111.80329
41.026455	111.8688
41.02646	111.82696
41.026465	111.91517
41.02647	111.87697
41.026475	111.87357
41.02648	111.86111
41.026485	111.91654
41.02649	111.89455
41.026495	111.95356
41.0265	111.75978
41.026505	111.89747
41.02651	111.97591
41.026515	111.86487
41.02652	111.94897
41.026525	111.87935
41.02653	111.81283
41.026535	111.9225
41.02654	111.74405
41.026545	112.0302
41.02655	111.78231
41.026555	111.99826
41.02656	111.88978
41.026565	111.81467
41.02657	111.91022
41.026575	112.01244
41.02658	111.78994
41.026585	111.9616
41.02659	111.88602
41.026595	111.83942
41.0266	111.97883
41.026605	111.82135
41.02661	111.91142
41.026615	111.80704
41.02662	111.82577
41.026625	111.92983
41.02663	111.82612
41.026635	111.94283
41.02664	111.87816
41.026645	111.77682
41.02665	111.91553
41.026655	111.84746
41.02666	111.8874
41.026665	111.79781
41.02667	111.84424
41.026675	111.87303
41.02668	111.70686
41.026685	111.84406
41.02669	111.86385
41.026695	111.75126
41.0267	111.8468
41.026705	111.78708
41.02671	111.9138
41.026715	111.77802
41.02672	111.81879
41.026725	111.70721
41.02673	111.81742
41.026735	111.71436
41.02674	111.98067
41.026745	111.47827
41.02675	112.05578
41.026755	111.64767
41.02676	111.70143
41.026765	111.81825
41.02677	111.54991
41.026775	111.96024
41.02678	111.52482
41.026785	111.88173
41.02679	111.50504
41.026795	111.96005
41.0268	111.38338
41.026805	111.8263
41.02681	111.6311
41.026815	111.56833
41.02682	111.92149
41.026825	111.35578
41.02683	111.77718
41.026835	111.50557
41.02684	111.68879
41.026845	111.45538
41.02685	111.60296
41.026855	111.64373
41.02686	111.49413
41.026865	111.59051
41.02687	111.50026
41.026875	111.49394
41.02688	111.57942
41.026885	111.40746
41.02689	111.6255
41.026895	111.54872
41.0269	111.4825
41.026905	111.47296
41.02691	111.35352
41.026915	111.43732
41.02692	111.50623
41.026925	111.31721
41.02693	111.59032
41.026935	111.17202
41.02694	111.65005
41.026945	111.07445
41.02695	111.54819
41.026955	111.19062
41.02696	111.41789
41.026965	111.32401
41.02697	111.20391
41.026975	111.56356
41.02698	111.00531
41.026985	111.36413
41.02699	111.12612
41.026995	111.27472
41.027	111.16415
41.027005	111.25732
41.02701	111.10514
41.027015	111.29296
41.02702	111.10175
41.027025	111.05531
41.02703	111.19062
41.027035	111.04065
41.02704	111.20493
41.027045	110.99595
41.02705	110.96388
41.027055	111.19849
41.02706	110.83556
41.027065	111.22847
41.02707	110.79651
41.027075	111.07457
41.02708	111.00209
41.027085	110.83334
41.02709	110.98129
41.027095	110.92735
41.0271	110.80402
41.027105	110.93468
41.02711	110.69292
41.027115	111.00822
41.02712	110.75062
41.027125	110.83162
41.02713	110.75026
41.027135	110.65662
41.02714	110.69465
41.027145	110.67176
41.02715	110.7235
41.027155	110.5991
41.02716	110.79699
41.027165	110.47965
41.02717	110.75043
41.027175	110.61478
41.02718	110.50337
41.027185	110.55183
41.02719	110.47953
41.027195	110.68594
41.0272	110.44127
41.027205	110.4877
41.02721	110.51941
41.027215	110.33243
41.02722	110.48698
41.027225	110.36861
41.02723	110.29166
41.027235	110.53854
41.02724	110.13877
41.027245	110.43173
41.02725	110.15057
41.027255	110.30054
41.02726	110.20792
41.027265	110.3456
41.02727	109.97158
41.027275	110.40443
41.02728	110.00365
41.027285	110.1709
41.02729	110.02994
41.027295	110.21709
41.0273	109.86447
41.027305	110.04615
41.02731	110.12876
41.027315	109.81142
41.02732	110.20058
41.027325	109.66504
41.02733	109.98952
41.027335	109.92027
41.02734	109.76434
41.027345	109.93475
41.02735	109.87812
41.027355	109.61861
41.02736	109.93904
41.027365	109.55107
41.02737	109.72864
41.027375	109.75134
41.02738	109.56043
41.027385	109.70837
41.02739	109.56353
41.027395	109.64453
41.0274	109.60806
41.027405	109.34412
41.02741	109.67577
41.027415	109.30914
41.02742	109.55923
41.027425	109.33268
41.02743	109.50154
41.027435	109.36421
41.02744	109.30705
41.027445	109.22468
41.02745	109.35211
41.027455	109.23421
41.02746	109.27332
41.027465	109.21478
41.02747	109.23594
41.027475	109.06035
41.02748	109.25948
41.027485	108.89095
41.02749	109.21258
41.027495	108.97166
41.0275	109.07298
41.027505	108.96349
41.02751	108.83975
41.027515	109.0281
41.02752	108.70004
41.027525	108.92749
41.02753	108.79099
41.027535	108.69783
41.02754	108.83224
41.027545	108.61916
41.02755	108.79832
41.027555	108.52724
41.02756	108.68996
41.027565	108.41376
41.02757	108.76643
41.027575	108.46323
41.02758	108.65551
41.027585	108.35129
41.02759	108.56289
41.027595	108.32536
41.0276	108.38425
41.027605	108.32011
41.02761	108.38371
41.027615	108.30796
41.02762	108.26242
41.027625	108.19435
41.02763	108.1469
41.027635	108.32232
41.02764	107.88911
41.027645	108.25682
41.02765	107.94544
41.027655	108.07442
41.02766	107.96165
41.027665	107.93811
41.02767	107.99766
41.027675	107.8499
41.02768	107.91099
41.027685	107.76323
41.02769	107.92207
41.027695	107.63323
41.0277	107.9101
41.027705	107.48291
41.02771	107.75333
41.027715	107.59366
41.02772	107.52761
41.027725	107.63478
41.02773	107.57762
41.027735	107.42438
41.02774	107.48273
41.027745	107.3826
41.02775	107.45013
41.027755	107.22715
41.02776	107.44023
41.027765	107.23061
41.02777	107.25564
41.027775	107.27357
41.02778	107.05876
41.027785	107.11318
41.02779	107.08815
41.027795	106.92811
41.0278	107.10567
41.027805	106.93884
41.02781	107.07432
41.027815	106.8933
41.02782	106.8539
41.027825	106.76295
41.02783	106.98712
41.027835	106.56625
41.02784	106.77385
41.027845	106.77284
41.02785	106.46593
41.027855	106.83477
41.02786	106.34202
41.027865	106.75168
41.02787	106.3782
41.027875	106.48399
41.02788	106.47905
41.027885	106.37921
41.02789	106.42618
41.027895	106.30691
41.0279	106.15128
41.027905	106.32449
41.02791	106.12214
41.027915	106.24397
41.02792	106.0276
41.027925	106.2243
41.02793	105.80891
41.027935	106.058
41.02794	105.88139
41.027945	105.96585
41.02795	105.94076
41.027955	105.83192
41.02796	105.793
41.027965	105.81982
41.02797	105.72135
41.027975	105.67123
41.02798	105.64035
41.027985	105.53932
41.02799	105.68112
41.027995	105.4008
41.028	105.48949
41.028005	105.46136
41.02801	105.3189
41.028015	105.45504
41.02802	105.16584
41.028025	105.38817
41.02803	105.18086
41.028035	105.2863
41.02804	105.09968
41.028045	105.0961
41.02805	105.16584
41.028055	104.86984
41.02806	105.11023
41.028065	104.99561
41.02807	104.85107
41.028075	104.93231
41.02808	104.70045
41.028085	104.99543
41.02809	104.61754
41.028095	104.80005
41.0281	104.67261
41.028105	104.47472
41.02811	104.84922
41.028115	104.2816
41.02812	104.64823
41.028125	104.40099
41.02813	104.40427
41.028135	104.2828
41.02814	104.30938
41.028145	104.28857
41.02815	104.24834
41.028155	104.13504
41.02816	104.13128
41.028165	104.06661
41.02817	104.06166
41.028175	103.97553
41.02818	103.96784
41.028185	103.89841
41.02819	103.98901
41.028195	103.73289
41.0282	103.78206
41.028205	103.75661
41.02821	103.66994
41.028215	103.63734
41.02822	103.72764
41.028225	103.45245
41.02823	103.64503
41.028235	103.30469
41.02824	103.56164
41.028245	103.22553
41.02825	103.50752
41.028255	103.07467
41.02826	103.38694
41.028265	103.15472
41.02827	103.1912
41.028275	103.03748
41.02828	103.04636
41.028285	103.08355
41.02829	102.8918
41.028295	103.00815
41.0283	102.87357
41.028305	102.78928
41.02831	102.94997
41.028315	102.51921
41.02832	102.8539
41.028325	102.55826
41.02833	102.72324
41.028335	102.50092
41.02834	102.57191
41.028345	102.45675
41.02835	102.4791
41.028355	102.36532
41.02836	102.25475
41.028365	102.33116
41.02837	102.18787
41.028375	102.34654
41.02838	101.92442
41.028385	102.37741
41.02839	101.82291
41.028395	102.04935
41.0284	101.98313
41.028405	101.8821
41.02841	102.05341
41.028415	101.70966
41.02842	101.76218
41.028425	101.83096
41.02843	101.60828
41.028435	101.76593
41.02844	101.48174
41.028445	101.60029
41.02845	101.596
41.028455	101.29011
41.02846	101.52518
41.028465	101.23158
41.02847	101.27324
41.028475	101.2935
41.02848	101.11457
41.028485	101.26197
41.02849	101.22287
41.028495	100.88509
41.0285	101.134
41.028505	100.80219
41.02851	101.05843
41.028515	100.75408
41.02852	100.92503
41.028525	100.82007
41.02853	100.62576
41.028535	100.78835
41.02854	100.47543
41.028545	100.6077
41.02855	100.71909
41.028555	100.27194
41.02856	100.62474
41.028565	100.21716
41.02857	100.43466
41.028575	100.21955
41.02858	100.31986
41.028585	100.22617
41.02859	100.05998
41.028595	100.24702
41.0286	99.959549
41.028605	100.16167
41.02861	99.89077
41.028615	99.996391
41.02862	99.65789
41.028625	99.921288
41.02863	99.728165
41.028635	99.799332
41.02864	99.550247
41.028645	99.723579
41.02865	99.427879
41.028655	99.602463
41.02866	99.367676
41.028665	99.532127
41.02867	99.446655
41.028675	99.222122
41.02868	99.302353
41.028685	99.315819
41.02869	99.049507
41.028695	99.162933
41.0287	98.905861
41.028705	99.086166
41.02871	98.842384
41.028715	99.051178
41.02872	98.844765
41.028725	98.738495
41.02873	98.830284
41.028735	98.664108
41.02874	98.571777
41.028745	98.742249
41.02875	98.468719
41.028755	98.55658
41.02876	98.397911
41.028765	98.420624
41.02877	98.399818
41.028775	98.226669
41.02878	98.28466
41.028785	98.1884
41.02879	98.235367
41.028795	97.956894
41.0288	98.169983
41.028805	97.832382
41.02881	98.01561
41.028815	97.720627
41.02882	97.901939
41.028825	97.759186
41.02883	97.875175
41.028835	97.563324
41.02884	97.724022
41.028845	97.401558
41.02885	97.635445
41.028855	97.339272
41.02886	97.536507
41.028865	97.291168
41.02887	97.409904
41.028875	97.150269
41.02888	97.26149
41.028885	97.144485
41.02889	97.097519
41.028895	97.011208
41.0289	97.061691
41.028905	96.928955
41.02891	96.938728
41.028915	96.678673
41.02892	96.872688
41.028925	96.618828
41.02893	96.674438
41.028935	96.645416
41.02894	96.511185
41.028945	96.614182
41.02895	96.342445
41.028955	96.34346
41.02896	96.417305
41.028965	96.244987
41.02897	96.176926
41.028975	96.333023
41.02898	96.088051
41.028985	96.057533
41.02899	96.10051
41.028995	95.722618
41.029	96.024574
41.029005	95.816078
41.02901	95.890465
41.029015	95.664085
41.02902	95.84832
41.029025	95.45237
41.02903	95.787766
41.029035	95.385788
41.02904	95.615089
41.029045	95.358673
41.02905	95.328156
41.029055	95.440742
41.02906	95.156189
41.029065	95.315041
41.02907	95.049377
41.029075	95.065056
41.02908	95.053497
41.029085	95.047653
41.02909	94.946983
41.029095	94.888985
41.0291	94.862045
41.029105	94.70594
41.02911	94.608368
41.029115	94.775375
41.02912	94.518784
41.029125	94.665649
41.02913	94.457031
41.029135	94.368996
41.02914	94.407021
41.029145	94.311478
41.02915	94.20842
41.029155	94.260155
41.02916	94.129265
41.029165	94.085274
41.02917	94.032166
41.029175	94.022629
41.02918	94.010887
41.029185	93.720314
41.02919	93.810379
41.029195	93.793694
41.0292	93.566956
41.029205	93.788208
41.02921	93.498352
41.029215	93.47123
41.02922	93.536736
41.029225	93.24604
41.02923	93.373123
41.029235	93.360481
41.02924	93.214272
41.029245	93.127129
41.02925	93.228935
41.029255	92.886391
41.02926	93.149483
41.029265	92.856705
41.02927	92.869164
41.029275	92.987534
41.02928	92.69339
41.029285	92.729271
41.02929	92.677536
41.029295	92.546524
41.0293	92.53389
41.029305	92.447044
41.02931	92.43631
41.029315	92.396202
41.02932	92.370453
41.029325	92.227814
41.02933	92.219475
41.029335	92.133461
41.02934	91.953339
41.029345	92.289566
41.02935	91.673195
41.029355	92.138229
41.02936	91.722488
41.029365	91.729996
41.02937	91.843071
41.029375	91.5336
41.02938	91.741264
41.029385	91.385361
41.02939	91.714798
41.029395	91.319862
41.0294	91.515541
41.029405	91.225502
41.02941	91.294769
41.029415	91.150223
41.02942	91.134903
41.029425	90.96801
41.02943	91.187416
41.029435	90.859535
41.02944	90.981544
41.029445	90.687218
41.02945	90.919075
41.029455	90.530754
41.02946	90.66552
41.029465	90.680061
41.02947	90.39122
41.029475	90.606865
41.02948	90.312241
41.029485	90.343239
41.02949	90.399742
41.029495	90.166512
41.0295	90.161201
41.029505	90.14875
41.02951	90.07132
41.029515	89.884163
41.02952	90.043304
41.029525	89.753151
41.02953	89.744743
41.029535	89.830574
41.02954	89.558777
41.029545	89.855316
41.02955	89.419899
41.029555	89.663025
41.02956	89.278816
41.029565	89.414833
41.02957	89.253601
41.029575	89.387001
41.02958	89.108704
41.029585	89.216057
41.02959	88.990334
41.029595	89.067101
41.0296	88.917496
41.029605	88.844475
41.02961	88.943604
41.029615	88.612617
41.02962	88.847878
41.029625	88.5756
41.02963	88.630501
41.029635	88.483093
41.02964	88.526428
41.029645	88.319305
41.02965	88.348984
41.029655	88.361145
41.02966	88.143768
41.029665	88.189842
41.02967	88.014244
41.029675	87.991241
41.02968	87.864456
41.029685	87.952492
41.02969	87.878464
41.029695	87.806465
41.0297	87.649704
41.029705	87.653282
41.02971	87.573769
41.029715	87.5746
41.02972	87.361694
41.029725	87.447701
41.02973	87.367477
41.029735	87.26561
41.02974	87.258636
41.029745	87.008354
41.02975	87.298035
41.029755	86.77137
41.02976	86.991486
41.029765	86.924431
41.02977	86.812675
41.029775	86.905304
41.02978	86.555359
41.029785	86.6791
41.02979	86.623787
41.029795	86.334763
41.0298	86.585403
41.029805	86.35408
41.02981	86.387337
41.029815	86.196426
41.02982	86.204407
41.029825	86.068634
41.02983	86.066422
41.029835	86.124596
41.02984	85.801956
41.029845	86.020706
41.02985	85.734901
41.029855	85.785927
41.02986	85.545181
41.029865	85.650978
41.02987	85.483788
41.029875	85.54554
41.02988	85.368279
41.029885	85.443199
41.02989	85.347832
41.029895	85.159599
41.0299	85.187256
41.029905	85.04361
41.02991	85.101425
41.029915	84.951996
41.02992	84.910873
41.029925	84.845184
41.02993	84.828316
41.029935	84.676086
41.02994	84.650513
41.029945	84.630074
41.02995	84.582268
41.029955	84.373116
41.02996	84.483147
41.029965	84.207115
41.02997	84.416451
41.029975	84.009171
41.02998	84.245979
41.029985	83.924889
41.02999	84.005119
41.029995	83.958687
41.03	83.724083
41.030005	83.976807
41.03001	83.643082
41.030015	83.67038
41.03002	83.47863
41.030025	83.652618
41.03003	83.386658
41.030035	83.617332
41.03004	83.152412
41.030045	83.383919
41.03005	83.199142
41.030055	82.992851
41.03006	83.228828
41.030065	82.836273
41.03007	83.038452
41.030075	82.842407
41.03008	82.775711
41.030085	82.735954
41.03009	82.701508
41.030095	82.60524
41.0301	82.419456
41.030105	82.567039
41.03011	82.313004
41.030115	82.452057
41.03012	82.150581
41.030125	82.290474
41.03013	82.081497
41.030135	82.084183
41.03014	81.929626
41.030145	82.112846
41.03015	81.826744
41.030155	81.876579
41.03016	81.675949
41.030165	81.668617
41.03017	81.598816
41.030175	81.524429
41.03018	81.459465
41.030185	81.524612
41.03019	81.346512
41.030195	81.211388
41.0302	81.246674
41.030205	81.202507
41.03021	80.999138
41.030215	81.172821
41.03022	80.600563
41.030225	81.110718
41.03023	80.639122
41.030235	80.905441
41.03024	80.472771
41.030245	80.762505
41.03025	80.390755
41.030255	80.609619
41.03026	80.363449
41.030265	80.434738
41.03027	80.305573
41.030275	80.087242
41.03028	80.201683
41.030285	79.988777
41.03029	80.030563
41.030295	79.929588
41.0303	79.874458
41.030305	79.796669
41.03031	79.71376
41.030315	79.655945
41.03032	79.570297
41.030325	79.442505
41.03033	79.601166
41.030335	79.366562
41.03034	79.37133
41.030345	79.237404
41.03035	79.27066
41.030355	78.89193
41.03036	79.244377
41.030365	78.676102
41.03037	79.206886
41.030375	78.585861
41.03038	78.889725
41.030385	78.683075
41.03039	78.594383
41.030395	78.567268
41.0304	78.519821
41.030405	78.527512
41.03041	78.291534
41.030415	78.36747
41.03042	78.089539
41.030425	78.200638
41.03043	78.049782
41.030435	77.936707
41.03044	77.822861
41.030445	78.013779
41.03045	77.630463
41.030455	77.900169
41.03046	77.685059
41.030465	77.529251
41.03047	77.702103
41.030475	77.211555
41.03048	77.535751
41.030485	77.223717
41.03049	77.483002
41.030495	76.93589
41.0305	77.385422
41.030505	76.776382
41.03051	77.029228
41.030515	76.823112
41.03052	76.873604
41.030525	76.711533
41.03053	76.771439
41.030535	76.502022
41.03054	76.654198
41.030545	76.417747
41.03055	76.496063
41.030555	76.226654
41.03056	76.385674
41.030565	76.047539
41.03057	76.330719
41.030575	75.927261
41.03058	76.103806
41.030585	75.848938
41.03059	75.812401
41.030595	75.77729
41.0306	75.692474
41.030605	75.782242
41.03061	75.523911
41.030615	75.466278
41.03062	75.429558
41.030625	75.334724
41.03063	75.231674
41.030635	75.267967
41.03064	75.217308
41.030645	75.120453
41.03065	74.878815
41.030655	75.060013
41.03066	74.763657
41.030665	74.87458
41.03067	74.630081
41.030675	74.645638
41.03068	74.578224
41.030685	74.511826
41.03069	74.407936
41.030695	74.336472
41.0307	74.38868
41.030705	74.189545
41.03071	74.14621
41.030715	74.123024
41.03072	74.248611
41.030725	73.651489
41.03073	74.10276
41.030735	73.640404
41.03074	73.818146
41.030745	73.678612
41.03075	73.61853
41.030755	73.556602
41.03076	73.388756
41.030765	73.449791
41.03077	73.138771
41.030775	73.371826
41.03078	73.086739
41.030785	73.149025
41.03079	72.99733
41.030795	73.050438
41.0308	72.887482
41.030805	72.866676
41.03081	72.628677
41.030815	72.757484
41.03082	72.509941
41.030825	72.528366
41.03083	72.500885
41.030835	72.476509
41.03084	72.183189
41.030845	72.445091
41.03085	71.906326
41.030855	72.413025
41.03086	71.789803
41.030865	72.221581
41.03087	71.639122
41.030875	71.972488
41.03088	71.717438
41.030885	71.491539
41.03089	71.815193
41.030895	71.355583
41.0309	71.64389
41.030905	71.287987
41.03091	71.379128
41.030915	71.297409
41.03092	71.088371
41.030925	71.105484
41.03093	71.021019
41.030935	70.955154
41.03094	70.937752
41.030945	70.804359
41.03095	70.87529
41.030955	70.604858
41.03096	70.67025
41.030965	70.450127
41.03097	70.525887
41.030975	70.354935
41.03098	70.417877
41.030985	70.119141
41.03099	70.271194
41.030995	70.028725
41.031	69.983185
41.031005	69.997665
41.03101	69.816826
41.031015	69.864632
41.03102	69.694695
41.031025	69.613632
41.03103	69.713768
41.031035	69.425819
41.03104	69.434998
41.031045	69.401741
41.03105	69.321213
41.031055	69.261673
41.03106	69.123985
41.031065	69.186928
41.03107	68.920135
41.031075	68.926094
41.03108	68.907143
41.031085	68.672241
41.03109	68.873886
41.031095	68.657394
41.0311	68.587784
41.031105	68.515602
41.03111	68.401634
41.031115	68.342926
41.03112	68.368378
41.031125	68.11911
41.03113	68.278969
41.031135	68.083282
41.03114	67.872223
41.031145	68.113152
41.03115	67.699074
41.031155	67.829254
41.03116	67.760826
41.031165	67.41893
41.03117	67.842186
41.031175	67.332268
41.03118	67.445221
41.031185	67.426743
41.03119	67.189812
41.031195	67.256332
41.0312	67.078529
41.031205	67.16198
41.03121	66.940186
41.031215	66.958961
41.03122	66.729843
41.031225	66.832367
41.03123	66.541611
41.031235	66.760002
41.03124	66.329895
41.031245	66.719414
41.03125	66.345932
41.031255	66.283821
41.03126	66.430748
41.031265	66.156387
41.03127	66.155731
41.031275	66.045998
41.03128	65.892097
41.031285	65.980316
41.03129	65.84877
41.031295	65.6082
41.0313	65.79554
41.031305	65.577866
41.03131	65.436958
41.031315	65.67305
41.03132	65.196037
41.031325	65.464256
41.03133	65.050003
41.031335	65.256592
41.03134	64.984322
41.031345	65.213799
41.03135	64.76712
41.031355	65.041962
41.03136	64.725815
41.031365	64.720688
41.03137	64.756393
41.031375	64.535263
41.03138	64.500809
41.031385	64.424393
41.03139	64.300537
41.031395	64.351204
41.0314	64.197121
41.031405	64.18383
41.03141	64.063728
41.031415	63.962875
41.03142	63.938499
41.031425	63.810169
41.03143	63.831867
41.031435	63.708008
41.03144	63.601376
41.031445	63.608349
41.03145	63.436211
41.031455	63.439072
41.03146	63.315094
41.031465	63.373089
41.03147	63.191891
41.031475	63.111843
41.03148	63.12859
41.031485	62.976601
41.03149	62.947392
41.031495	62.766014
41.0315	62.754093
41.031505	62.727989
41.03151	62.613369
41.031515	62.584698
41.03152	62.501907
41.031525	62.32077
41.03153	62.330128
41.031535	62.195004
41.03154	62.170624
41.031545	62.171997
41.03155	61.956524
41.031555	62.07782
41.03156	61.734856
41.031565	61.94043
41.03157	61.533569
41.031575	61.874928
41.03158	61.443806
41.031585	61.617672
41.03159	61.42181
41.031595	61.376274
41.0316	61.280369
41.031605	61.185539
41.03161	61.221481
41.031615	60.948372
41.03162	61.111988
41.031625	60.823322
41.03163	60.905518
41.031635	60.778439
41.03164	60.637177
41.031645	60.660542
41.03165	60.46027
41.031655	60.501335
41.03166	60.445549
41.031665	60.410797
41.03167	60.071407
41.031675	60.345947
41.03168	59.806465
41.031685	60.267986
41.03169	59.834419
41.031695	59.91888
41.0317	59.868752
41.031705	59.740425
41.03171	59.789597
41.031715	59.630215
41.03172	59.416115
41.031725	59.68058
41.03173	59.228779
41.031735	59.246181
41.03174	59.388638
41.031745	59.019268
41.03175	59.17144
41.031755	58.952927
41.03176	58.83807
41.031765	58.969139
41.03177	58.689655
41.031775	58.730244
41.03178	58.733524
41.031785	58.443787
41.03179	58.575035
41.031795	58.345856
41.0318	58.349133
41.031805	58.338703
41.03181	58.156311
41.031815	58.21347
41.03182	58.07954
41.031825	57.879448
41.03183	58.006168
41.031835	57.659149
41.03184	57.804344
41.031845	57.673336
41.03185	57.630657
41.031855	57.617905
41.03186	57.382645
41.031865	57.571472
41.03187	57.186783
41.031875	57.274639
41.03188	57.119728
41.031885	57.252766
41.03189	56.929291
41.031895	56.986271
41.0319	56.795715
41.031905	56.946217
41.03191	56.593357
41.031915	56.775391
41.03192	56.50246
41.031925	56.584476
41.03193	56.337475
41.031935	56.544601
41.03194	56.06723
41.031945	56.487621
41.03195	55.967213
41.031955	56.165634
41.03196	56.11211
41.031965	55.833458
41.03197	55.996418
41.031975	55.746971
41.03198	55.633007
41.031985	55.745602
41.03199	55.325031
41.031995	55.722057
41.032	55.259228
41.032005	55.523335
41.03201	55.186508
41.032015	55.262447
41.03202	54.981949
41.032025	55.251537
41.03203	54.870544
41.032035	55.035175
41.03204	54.813087
41.032045	54.852665
41.03205	54.564655
41.032055	54.603397
41.03206	54.551662
41.032065	54.420471
41.03207	54.438889
41.032075	54.374756
41.03208	54.264187
41.032085	54.30925
41.03209	54.024338
41.032095	54.151772
41.0321	53.758205
41.032105	54.081799
41.03211	53.668797
41.032115	53.893627
41.03212	53.729176
41.032125	53.555668
41.03213	53.532124
41.032135	53.364574
41.03214	53.411484
41.032145	53.379417
41.03215	53.176224
41.032155	53.291916
41.03216	53.067745
41.032165	53.029835
41.03217	52.912651
41.032175	52.987694
41.03218	52.73074
41.032185	52.723228
41.03219	52.721561
41.032195	52.593769
41.0322	52.647354
41.032205	52.292824
41.03221	52.405418
41.032215	52.368702
41.03222	52.095413
41.032225	52.238228
41.03223	52.101196
41.032235	51.953972
41.03224	52.049519
41.032245	51.819027
41.03225	51.807941
41.032255	51.698921
41.03226	51.701309
41.032265	51.56839
41.03227	51.506104
41.032275	51.472366
41.03228	51.181255
41.032285	51.412106
41.03229	51.037968
41.032295	51.234543
41.0323	51.063419
41.032305	50.877453
41.03231	51.196278
41.032315	50.712944
41.03232	50.832569
41.032325	50.715683
41.03233	50.563992
41.032335	50.667404
41.03234	50.412834
41.032345	50.462841
41.03235	50.379753
41.032355	50.228596
41.03236	50.230621
41.032365	49.995007
41.03237	50.18848
41.032375	49.836517
41.03238	50.149082
41.032385	49.629093
41.03239	49.902378
41.032395	49.663544
41.0324	49.561024
41.032405	49.698353
41.03241	49.319267
41.032415	49.565434
41.03242	49.38102
41.032425	49.149811
41.03243	49.352707
41.032435	48.971893
41.03244	49.153564
41.032445	48.786579
41.03245	49.032986
41.032455	48.847137
41.03246	48.754215
41.032465	48.724174
41.03247	48.680126
41.032475	48.47628
41.03248	48.47282
41.032485	48.370838
41.03249	48.419296
41.032495	48.250378
41.0325	48.117817
41.032505	48.103451
41.03251	48.099697
41.032515	47.898411
41.03252	47.976555
41.032525	47.74469
41.03253	47.870934
41.032535	47.672035
41.03254	47.627987
41.032545	47.532799
41.03255	47.528328
41.032555	47.271072
41.03256	47.408939
41.032565	47.214745
41.03257	47.292412
41.032575	47.081711
41.03258	47.096016
41.032585	46.810448
41.03259	47.029972
41.032595	46.681107
41.0326	46.896397
41.032605	46.632469
41.03261	46.758713
41.032615	46.398579
41.03262	46.593903
41.032625	46.352505
41.03263	46.34124
41.032635	46.293797
41.03264	46.169281
41.032645	46.170296
41.03265	46.077133
41.032655	45.950352
41.03266	45.985699
41.032665	45.791031
41.03267	45.745968
41.032675	45.652508
41.03268	45.627235
41.032685	45.600952
41.03269	45.488716
41.032695	45.378147
41.0327	45.314671
41.032705	45.195759
41.03271	45.190334
41.032715	45.185863
41.03272	45.03286
41.032725	45.133827
41.03273	44.812084
41.032735	44.727264
41.03274	44.839024
41.032745	44.642509
41.03275	44.531227
41.032755	44.578014
41.03276	44.423103
41.032765	44.570984
41.03277	44.2127
41.032775	44.316471
41.03278	44.292747
41.032785	44.028999
41.03279	44.168175
41.032795	43.869255
41.0328	44.131874
41.032805	43.716728
41.03281	43.815197
41.032815	43.622433
41.03282	43.658436
41.032825	43.564079
41.03283	43.467522
41.032835	43.429611
41.03284	43.345688
41.032845	43.315292
41.03285	43.165325
41.032855	43.282745
41.03286	43.094219
41.032865	43.105602
41.03287	42.881966
41.032875	42.900742
41.03288	42.732655
41.032885	42.779446
41.03289	42.57095
41.032895	42.553902
41.0329	42.592587
41.032905	42.341648
41.03291	42.530476
41.032915	42.188763
41.03292	42.353569
41.032925	42.049049
41.03293	42.120041
41.032935	41.990875
41.03294	41.975319
41.032945	41.885078
41.03295	41.854202
41.032955	41.673004
41.03296	41.750492
41.032965	41.469337
41.03297	41.714668
41.032975	41.439472
41.03298	41.463852
41.032985	41.379036
41.03299	41.103363
41.032995	41.333855
41.033	41.048767
41.033005	41.038155
41.03301	40.972473
41.033015	40.841282
41.03302	40.976227
41.033025	40.649532
41.03303	40.825428
41.033035	40.58522
41.03304	40.609123
41.033045	40.397049
41.03305	40.463924
41.033055	40.317535
41.03306	40.555538
41.033065	39.98822
41.03307	40.34877
41.033075	39.887905
41.03308	40.209354
41.033085	39.7743
41.03309	39.956867
41.033095	39.756237
41.0331	39.743782
41.033105	39.700272
41.03311	39.588512
41.033115	39.524555
41.03312	39.578976
41.033125	39.210796
41.03313	39.389729
41.033135	39.178371
41.03314	39.171337
41.033145	39.189457
41.03315	38.932026
41.033155	39.039673
41.03316	38.798748
41.033165	38.875519
41.03317	38.721443
41.033175	38.832901
41.03318	38.570641
41.033185	38.552879
41.03319	38.353981
41.033195	38.618267
41.0332	38.173496
41.033205	38.496433
41.03321	38.112579
41.033215	38.310287
41.03322	38.036823
41.033225	37.971615
41.03323	38.063408
41.033235	37.782787
41.03324	37.997066
41.033245	37.57888
41.03325	37.879528
41.033255	37.38475
41.03326	37.873684
41.033265	37.21106
41.03327	37.464081
41.033275	37.482857
41.03328	37.059067
41.033285	37.444294
41.03329	36.989449
41.033295	37.233589
41.0333	36.895275
41.033305	36.880611
41.03331	36.875309
41.033315	36.861835
41.03332	36.681652
41.033325	36.776543
41.03333	36.563576
41.033335	36.592602
41.03334	36.434769
41.033345	36.408485
41.03335	36.212147
41.033355	36.250351
41.03336	36.141514
41.033365	36.172211
41.03337	36.140324
41.033375	35.985229
41.03338	35.964428
41.033385	35.693287
41.03339	35.89666
41.033395	35.682915
41.0334	35.620274
41.033405	35.745026
41.03341	35.413147
41.033415	35.54213
41.03342	35.258232
41.033425	35.413025
41.03343	35.123646
41.033435	35.405518
41.03344	34.994484
41.033445	35.100937
41.03345	34.929634
41.033455	34.89077
41.03346	34.911037
41.033465	34.680546
41.03347	34.751057
41.033475	34.705997
41.03348	34.680725
41.033485	34.407795
41.03349	34.512878
41.033495	34.321247
41.0335	34.269569
41.033505	34.219086
41.03351	34.246208
41.033515	34.151493
41.03352	34.185112
41.033525	33.846138
41.03353	34.03616
41.033535	33.780575
41.03354	33.893524
41.033545	33.717155
41.03355	33.785522
41.033555	33.515453
41.03356	33.60659
41.033565	33.374371
41.03357	33.449112
41.033575	33.397438
41.03358	33.181427
41.033585	33.31673
41.03359	33.094406
41.033595	33.189774
41.0336	32.972099
41.033605	32.932819
41.03361	32.901108
41.033615	32.812534
41.03362	32.727779
41.033625	32.634258
41.03363	32.790901
41.033635	32.379032
41.03364	32.523693
41.033645	32.433807
41.03365	32.215237
41.033655	32.531559
41.03366	32.020748
41.033665	32.332123
41.03367	32.015621
41.033675	32.105743
41.03368	31.940042
41.033685	31.989216
41.03369	31.819939
41.033695	31.814814
41.0337	31.642019
41.033705	31.670988
41.03371	31.58009
41.033715	31.543552
41.03372	31.457722
41.033725	31.347036
41.03373	31.35997
41.033735	31.199932
41.03374	31.232536
41.033745	31.205416
41.03375	31.000019
41.033755	31.116188
41.03376	30.798853
41.033765	31.056822
41.03377	30.64716
41.033775	30.963659
41.03378	30.478596
41.033785	30.846119
41.03379	30.423164
41.033795	30.456781
41.0338	30.402184
41.033805	30.342638
41.03381	30.294359
41.033815	30.174255
41.03382	30.267715
41.033825	30.109226
41.03383	30.077696
41.033835	29.886782
41.03384	29.976009
41.033845	29.775858
41.03385	29.776573
41.033855	29.679478
41.03386	29.75148
41.033865	29.399693
41.03387	29.753506
41.033875	29.2719
41.03388	29.430748
41.033885	29.365242
41.03389	29.288113
41.033895	29.248535
41.0339	29.234707
41.033905	28.956116
41.03391	29.114067
41.033915	28.818905
41.03392	28.992771
41.033925	28.735519
41.03393	28.854429
41.033935	28.638422
41.03394	28.780699
41.033945	28.42313
41.03395	28.574467
41.033955	28.388321
41.03396	28.385757
41.033965	28.336466
41.03397	28.2467
41.033975	28.321922
41.03398	28.100967
41.033985	28.062939
41.03399	27.91518
41.033995	27.999163
41.034	27.924776
41.034005	27.850687
41.03401	27.780056
41.034015	27.588486
41.03402	27.81403
41.034025	27.422131
41.03403	27.514935
41.034035	27.525843
41.03404	27.376057
41.034045	27.343155
41.03405	27.269125
41.034055	27.149141
41.03406	27.147949
41.034065	27.03911
41.03407	27.078688
41.034075	26.830614
41.03408	27.140141
41.034085	26.646019
41.03409	26.955664
41.034095	26.694477
41.0341	26.66396
41.034105	26.405811
41.03411	26.679457
41.034115	26.403786
41.03412	26.469946
41.034125	26.315748
41.03413	26.312351
41.034135	26.243746
41.03414	26.241661
41.034145	25.973499
41.03415	26.13777
41.034155	26.063383
41.03416	25.7715
41.034165	25.994122
41.03417	25.674225
41.034175	25.839746
41.03418	25.736691
41.034185	25.432169
41.03419	25.71571
41.034195	25.414228
41.0342	25.589645
41.034205	25.227905
41.03421	25.414049
41.034215	25.11257
41.03422	25.272964
41.034225	24.974405
41.03423	25.311352
41.034235	24.86211
41.03424	25.09141
41.034245	24.749041
41.03425	24.759769
41.034255	24.964989
41.03426	24.473309
41.034265	24.8456
41.03427	24.447918
41.034275	24.649918
41.03428	24.382353
41.034285	24.504721
41.03429	24.302185
41.034295	24.307846
41.0343	24.192692
41.034305	24.222374
41.03431	24.065733
41.034315	24.165869
41.03432	23.875654
41.034325	24.027884
41.03433	23.76479
41.034335	23.908079
41.03434	23.688316
41.034345	23.741425
41.03435	23.607136
41.034355	23.610174
41.03436	23.400545
41.034365	23.485125
41.03437	23.434818
41.034375	23.359776
41.03438	23.179949
41.034385	23.429512
41.03439	22.906422
41.034395	23.28521
41.0344	22.823036
41.034405	23.066639
41.03441	22.804558
41.034415	22.886635
41.03442	22.948206
41.034425	22.563875
41.03443	22.921444
41.034435	22.511841
41.03444	22.467255
41.034445	22.590101
41.03445	22.406399
41.034455	22.405207
41.03446	22.382141
41.034465	22.168041
41.03447	22.39871
41.034475	21.883129
41.03448	22.282183
41.034485	21.974564
41.03449	22.117556
41.034495	21.859407
41.0345	21.853626
41.034505	21.818996
41.03451	21.84099
41.034515	21.659969
41.03452	21.625816
41.034525	21.609783
41.03453	21.501482
41.034535	21.390556
41.03454	21.486103
41.034545	21.316887
41.03455	21.363258
41.034555	21.202206
41.03456	21.133959
41.034565	21.072746
41.03457	21.182419
41.034575	20.85042
41.03458	21.121323
41.034585	20.769358
41.03459	20.886898
41.034595	20.77943
41.0346	20.606459
41.034605	20.811855
41.03461	20.383953
41.034615	20.793797
41.03462	20.340443
41.034625	20.489931
41.03463	20.402908
41.034635	20.356476
41.03464	20.255684
41.034645	20.251751
41.03465	20.092369
41.034655	20.233154
41.03466	20.012379
41.034665	20.026566
41.03467	19.862593
41.034675	19.917547
41.03468	19.758343
41.034685	19.811749
41.03469	19.746542
41.034695	19.628345
41.0347	19.570648
41.034705	19.49358
41.03471	19.406378
41.034715	19.463003
41.03472	19.346655
41.034725	19.406736
41.03473	19.265293
41.034735	19.167364
41.03474	19.16498
41.034745	19.063473
41.03475	19.042969
41.034755	18.956959
41.03476	19.059717
41.034765	18.649696
41.03477	18.989204
41.034775	18.691837
41.03478	18.809259
41.034785	18.525183
41.03479	18.695593
41.034795	18.496334
41.0348	18.659592
41.034805	18.225729
41.03481	18.500446
41.034815	18.225431
41.03482	18.238544
41.034825	18.288195
41.03483	17.988443
41.034835	18.285454
41.03484	17.946482
41.034845	18.039762
41.03485	17.872393
41.034855	17.871082
41.03486	17.863035
41.034865	17.686129
41.03487	17.624199
41.034875	17.866791
41.03488	17.520964
41.034885	17.626881
41.03489	17.367899
41.034895	17.532408
41.0349	17.360926
41.034905	17.198503
41.03491	17.44932
41.034915	17.090679
41.03492	17.38274
41.034925	16.953827
41.03493	17.046154
41.034935	17.072083
41.03494	16.886473
41.034945	17.05265
41.03495	16.866325
41.034955	16.737164
41.03496	16.902328
41.034965	16.599178
41.03497	16.564369
41.034975	16.685127
41.03498	16.423941
41.034985	16.581953
41.03499	16.274334
41.034995	16.550541
41.035	16.237438
41.035005	16.216457
41.03501	16.162575
41.035015	16.112387
41.03502	16.180157
41.035025	15.977263
41.03503	16.099632
41.035035	15.956104
41.03504	15.966713
41.035045	15.703082
41.03505	15.814543
41.035055	15.765548
41.03506	15.753925
41.035065	15.614033
41.03507	15.560806
41.035075	15.487135
41.03508	15.538454
41.035085	15.298069
41.03509	15.494644
41.035095	15.209556
41.0351	15.292465
41.035105	15.185118
41.03511	15.186846
41.035115	15.129209
41.03512	15.065372
41.035125	14.90736
41.03513	14.992356
41.035135	14.759481
41.03514	14.966249
41.035145	14.638483
41.03515	14.934361
41.035155	14.49573
41.03516	14.778733
41.035165	14.324069
41.03517	14.851093
41.035175	14.220179
41.03518	14.722466
41.035185	14.247477
41.03519	14.289797
41.035195	14.332951
41.0352	14.206707
41.035205	14.13846
41.03521	14.123917
41.035215	14.068484
41.03522	14.049232
41.035225	13.931334
41.03523	13.994991
41.035235	13.943254
41.03524	13.736307
41.035245	13.733745
41.03525	13.785481
41.035255	13.642967
41.03526	13.57609
41.035265	13.545216
41.03527	13.555109
41.035275	13.511777
41.03528	13.316631
41.035285	13.482094
41.03529	13.271928
41.035295	13.346493
41.0353	13.211548
41.035305	13.060212
41.03531	13.288319
41.035315	12.920618
41.03532	13.133705
41.035325	12.840271
41.03533	13.01825
41.035335	12.944878
41.03534	12.641668
41.035345	12.892305
41.03535	12.632132
41.035355	12.81333
41.03536	12.360334
41.035365	12.814164
41.03537	12.468696
41.035375	12.519002
41.03538	12.473286
41.035385	12.335957
41.03539	12.443781
41.035395	12.161255
41.0354	12.323677
41.035405	12.041807
41.03541	12.344301
41.035415	11.897326
41.03542	12.133956
41.035425	11.947811
41.03543	11.928379
41.035435	11.83331
41.03544	11.919856
41.035445	11.710346
41.03545	11.787594
41.035455	11.733711
41.03546	11.481344
41.035465	11.795282
41.03547	11.362433
41.035475	11.461377
41.03548	11.482716
41.035485	11.490763
41.03549	11.337876
41.035495	11.440396
41.0355	11.081457
41.035505	11.348128
41.03551	11.089325
41.035515	11.090338
41.03552	11.072933
41.035525	11.042237
41.03553	10.969043
41.035535	10.793447
41.03554	10.92124
41.035545	10.793627
41.03555	10.884941
41.035555	10.674357
41.03556	10.705769
41.035565	10.623396
41.03557	10.641634
41.035575	10.498465
41.03558	10.438085
41.035585	10.48553
41.03559	10.283828
41.035595	10.53977
41.0356	10.151267
41.035605	10.343731
41.03561	10.075688
41.035615	10.149061
41.03562	9.9846125
41.035625	10.224342
41.03563	9.9066496
41.035635	10.09053
41.03564	9.9397297
41.035645	9.9070072
41.03565	9.7172852
41.035655	9.8317261
41.03566	9.7570419
41.035665	9.7095966
41.03567	9.5587368
41.035675	9.6307392
41.03568	9.6597672
41.035685	9.3750362
41.03569	9.5546837
41.035695	9.2502832
41.0357	9.5101595
41.035705	9.1600418
41.03571	9.4154472
41.035715	9.1518764
41.03572	9.1967583
41.035725	9.1704731
41.03573	9.0435143
41.035735	9.0242624
41.03574	9.0011959
41.035745	9.0193157
41.03575	8.9281797
41.035755	8.8432426
41.03576	8.7696915
41.035765	8.7724323
41.03577	8.6268787
41.035775	8.8406801
41.03578	8.5030193
41.035785	8.6787338
41.03579	8.5083246
41.035795	8.622467
41.0358	8.4416275
41.035805	8.3506699
41.03581	8.3776112
41.035815	8.327961
41.03582	8.3240871
41.035825	8.1688166
41.03583	8.2321167
41.035835	8.1579094
41.03584	7.9763532
41.035845	8.0776806
41.03585	8.0736275
41.035855	7.9649091
41.03586	8.0299377
41.035865	7.76124
41.03587	7.8978539
41.035875	7.7027082
41.03588	7.8849196
41.035885	7.5308681
41.03589	7.8001022
41.035895	7.562995
41.0359	7.5936913
41.035905	7.5432062
41.03591	7.4587464
41.035915	7.3797107
41.03592	7.3420405
41.035925	7.2969794
41.03593	7.3077083
41.035935	7.3336959
41.03594	7.1685314
41.035945	7.1644187
41.03595	7.2915554
41.035955	6.8243742
41.03596	7.2188377
41.035965	6.8525672
41.03597	7.1156025
41.035975	6.9349408
41.03598	6.7254305
41.035985	6.9931149
41.03599	6.6464543
41.035995	6.8305135
41.036	6.6742897
41.036005	6.5751672
41.03601	6.8076849
41.036015	6.3842535
41.03602	6.6952705
41.036025	6.2999725
41.03603	6.6595674
41.036035	6.2856078
41.03604	6.3335299
41.036045	6.4275861
41.03605	6.1677098
41.036055	6.3673258
41.03606	6.1134696
41.036065	6.2114
41.03607	6.0408115
41.036075	5.9605837
41.03608	6.1334372
41.036085	5.9455633
41.03609	5.9611201
41.036095	5.882144
41.0361	5.8389306
41.036105	5.779922
41.03611	5.7780743
41.036115	5.7823062
41.03612	5.6511164
41.036125	5.7476759
41.03613	5.5277348
41.036135	5.5605173
41.03614	5.4908991
41.036145	5.4659843
41.03615	5.5494308
41.036155	5.227685
41.03616	5.3542256
41.036165	5.3836107
41.03617	5.2576661
41.036175	5.2366853
41.03618	5.1771402
41.036185	5.1090717
41.03619	5.1150322
41.036195	5.0988197
41.0362	5.0217509
41.036205	5.1087737
41.03621	4.9088001
41.036215	4.8204064
41.03622	4.8393607
41.036225	4.7444701
41.03623	4.889667
41.036235	4.5899153
41.03624	4.7506094
41.036245	4.5919418
41.03625	4.7349334
41.036255	4.4175982
41.03626	4.6486259
41.036265	4.4102669
41.03627	4.4828057
41.036275	4.4385791
41.03628	4.386723
41.036285	4.3107867
41.03629	4.3932199
41.036295	4.1886568
41.0363	4.2123795
41.036305	4.2430758
41.03631	4.0412545
41.036315	4.2318106
41.03632	3.9820075
41.036325	4.0960312
41.03633	3.8979053
41.036335	3.9054155
41.03634	3.9412379
41.036345	3.7950277
41.03635	3.9809942
41.036355	3.7073493
41.03636	3.7762523
41.036365	3.7263036
41.03637	3.6783218
41.036375	3.5933852
41.03638	3.5597682
41.036385	3.5855174
41.03639	3.5819411
41.036395	3.4838319
41.0364	3.4202337
41.036405	3.4043789
41.03641	3.3379793
41.036415	3.2821894
41.03642	3.3332109
41.036425	3.1490922
41.03643	3.4196973
41.036435	2.9606223
41.03644	3.2439828
41.036445	2.9249191
41.03645	3.2036901
41.036455	2.9078722
41.03646	3.059864
41.036465	2.8111339
41.03647	3.1468868
41.036475	2.5547147
41.03648	3.036201
41.036485	2.6925802
41.03649	2.7155876
41.036495	2.7318001
41.0365	2.5976896
41.036505	2.7481914
41.03651	2.6400089
41.036515	2.5857687
41.03652	2.4941564
41.036525	2.4806857
41.03653	2.4673343
41.036535	2.3952127
41.03654	2.3880005
41.036545	2.3226738
41.03655	2.4376512
41.036555	2.1425486
41.03656	2.2153854
41.036565	2.1230578
41.03657	2.2454262
41.036575	2.0526052
41.03658	2.2177696
41.036585	1.8698573
41.03659	2.2493005
41.036595	1.8187165
41.0366	2.0273328
41.036605	1.7487407
41.03661	2.0110011
41.036615	1.7617345
41.03662	1.7567873
41.036625	1.806438
41.03663	1.6846061
41.036635	1.7069578
41.03664	1.4435053
41.036645	1.7449856
41.03665	1.383841
41.036655	1.7166734
41.03666	1.4474392
41.036665	1.4554858
41.03667	1.4817715
41.036675	1.2934208
41.03668	1.3439059
41.036685	1.2602806
41.03669	1.3474822
41.036695	1.3568401
41.0367	1.0765195
41.036705	1.3810992
41.03671	0.93066692
41.036715	1.2937188
41.03672	0.84877014
41.036725	1.2915134
41.03673	0.8469224
41.036735	1.1388063
41.03674	0.78105927
41.036745	1.0060668
41.03675	0.87606907
41.036755	0.76669455
41.03676	0.83464384
41.036765	0.76174736
41.03677	0.82558393
41.036775	0.75495243
41.03678	0.55193901
41.036785	0.64849854
41.03679	0.50532818
41.036795	0.61625242
41.0368	0.45502186
41.036805	0.5273819
41.03681	0.54579973
41.036815	0.35262108
41.03682	0.32758713
41.036825	0.33628941
41.03683	0.36782026
41.036835	0.23239851
41.03684	0.23597479
41.036845	0.21547079
41.03685	0.26220083
41.036855	-0.011920929
41.03686	0.19448996
41.036865	-0.030219555
41.03687	0.18531084
41.036875	-0.21803379
41.03688	0.1398921
41.036885	-0.11003017
41.03689	-0.014483929
41.036895	-0.14978647
41.0369	-0.25302172
41.036905	-0.11736155
41.03691	-0.27930737
41.036915	-0.12266636
41.03692	-0.4208684
41.036925	-0.24312735
41.03693	-0.44816732
41.036935	-0.28562546
41.03694	-0.58501959
41.036945	-0.31203032
41.03695	-0.58329105
41.036955	-0.39684772
41.03696	-0.71197748
41.036965	-0.4324913
41.03697	-0.64885616
41.036975	-0.649333
41.03698	-0.53536892
41.036985	-0.88322163
41.03699	-0.29188395
41.036995	-0.85067749
41.037	-0.40793419
41.037005	-0.76448917
41.03701	-0.46950579
41.037015	-0.68992376
41.03702	-0.66024065
41.037025	-0.46354532
41.03703	-0.60600042
41.037035	-0.30881166
41.03704	-0.87505579
41.037045	-0.27757883
41.03705	-0.60141087
41.037055	-0.49901009
41.03706	-0.410676
41.037065	-0.50926208
